Jan. 20, 2025   12:01:28
Cyclic Voltammetry
File: c:/users/lab/d3talesrobotics/roboticsui/test_data/cv_testing\cv_tempo_test01_mcr.bin
Data Source:  Experiment
Instrument Model:  CHI604D
Header: CV CV_tempo_test_mcr
Note: 

Init E (V) = 0
High E (V) = 0.7
Low E (V) = 0
Final E (V) = -0.2
Init P/N = P
Scan Rate (V/s) = 0.1
Segment = 2
Sample Interval (V) = 0.01
Quiet Time (sec) = 2
Sensitivity (A/V) = 1e-6

Results:

Channel 1:
Segment 1:

Segment 2:
Ep = 0.475V
ip = -2.353e-7A
Ah = -2.611e-7C

Potential/V, Current/A

0.005, -7.035e-10
0.015, -6.119e-10
0.025, -5.798e-10
0.035, -5.506e-10
0.045, -5.321e-10
0.055, -4.990e-10
0.065, -4.863e-10
0.075, -4.561e-10
0.085, -4.405e-10
0.095, -4.211e-10
0.105, -3.899e-10
0.115, -3.675e-10
0.125, -3.422e-10
0.135, -3.062e-10
0.145, -2.711e-10
0.155, -2.399e-10
0.165, -1.990e-10
0.175, -1.445e-10
0.185, -9.777e-11
0.195, -3.155e-11
0.205, 3.661e-11
0.215, 1.262e-10
0.225, 2.187e-10
0.235, 3.239e-10
0.245, 4.622e-10
0.255, 6.092e-10
0.265, 7.806e-10
0.275, 9.831e-10
0.285, 1.211e-9
0.295, 1.479e-9
0.305, 1.776e-9
0.315, 2.117e-9
0.325, 2.487e-9
0.335, 2.915e-9
0.345, 3.395e-9
0.355, 3.963e-9
0.365, 4.643e-9
0.375, 5.413e-9
0.385, 6.313e-9
0.395, 7.347e-9
0.405, 8.499e-9
0.415, 9.804e-9
0.425, 1.132e-8
0.435, 1.314e-8
0.445, 1.542e-8
0.455, 1.841e-8
0.465, 2.242e-8
0.475, 2.786e-8
0.485, 3.531e-8
0.495, 4.550e-8
0.505, 5.926e-8
0.515, 7.757e-8
0.525, 1.008e-7
0.535, 1.292e-7
0.545, 1.622e-7
0.555, 1.984e-7
0.565, 2.355e-7
0.575, 2.706e-7
0.585, 3.017e-7
0.595, 3.271e-7
0.605, 3.467e-7
0.615, 3.609e-7
0.625, 3.706e-7
0.635, 3.769e-7
0.645, 3.807e-7
0.655, 3.830e-7
0.665, 3.842e-7
0.675, 3.848e-7
0.685, 3.850e-7
0.695, 3.851e-7
0.695, 3.765e-7
0.685, 3.675e-7
0.675, 3.608e-7
0.665, 3.540e-7
0.655, 3.463e-7
0.645, 3.370e-7
0.635, 3.254e-7
0.625, 3.103e-7
0.615, 2.911e-7
0.605, 2.668e-7
0.595, 2.371e-7
0.585, 2.025e-7
0.575, 1.643e-7
0.565, 1.250e-7
0.555, 8.762e-8
0.545, 5.476e-8
0.535, 2.828e-8
0.525, 8.505e-9
0.515, -5.119e-9
0.505, -1.376e-8
0.495, -1.867e-8
0.485, -2.107e-8
0.475, -2.192e-8
0.465, -2.180e-8
0.455, -2.112e-8
0.445, -2.014e-8
0.435, -1.902e-8
0.425, -1.787e-8
0.415, -1.673e-8
0.405, -1.565e-8
0.395, -1.465e-8
0.385, -1.371e-8
0.375, -1.285e-8
0.365, -1.206e-8
0.355, -1.135e-8
0.345, -1.070e-8
0.335, -1.011e-8
0.325, -9.571e-9
0.315, -9.077e-9
0.305, -8.636e-9
0.295, -8.215e-9
0.285, -7.833e-9
0.275, -7.472e-9
0.265, -7.138e-9
0.255, -6.827e-9
0.245, -6.534e-9
0.235, -6.271e-9
0.225, -6.017e-9
0.215, -5.784e-9
0.205, -5.572e-9
0.195, -5.369e-9
0.185, -5.190e-9
0.175, -5.011e-9
0.165, -4.854e-9
0.155, -4.712e-9
0.145, -4.577e-9
0.135, -4.464e-9
0.125, -4.338e-9
0.115, -4.241e-9
0.105, -4.153e-9
0.095, -4.063e-9
0.085, -3.997e-9
0.075, -3.912e-9
0.065, -3.858e-9
0.055, -3.806e-9
0.045, -3.756e-9
0.035, -3.716e-9
0.025, -3.680e-9
0.015, -3.655e-9
0.005, -3.629e-9
